t	x(t)	v	
0.05	-0.949771	1.02821	
0.1	-0.898173	1.0528	
0.15	-0.845384	1.07414	
0.2	-0.79156	1.09259	
0.25	-0.736841	1.10852	
0.3	-0.681347	1.12233	
0.35	-0.625181	1.13435	
0.4	-0.568427	1.14496	
0.45	-0.511152	1.15446	
0.5	-0.453407	1.16316	
0.55	-0.395228	1.17132	
0.6	-0.336638	1.17918	
0.65	-0.277651	1.18695	
0.7	-0.218269	1.1948	
0.75	-0.158485	1.20285	
0.8	-0.0982881	1.21121	
0.85	-0.037662	1.21994	
0.9	0.023412	1.22905	
0.95	0.0849534	1.23854	
1	0.14698	1.24834	
1.05	0.209507	1.25836	
1.1	0.272543	1.26845	
1.15	0.33609	1.27844	
1.2	0.400139	1.28808	
1.25	0.464669	1.29709	
1.3	0.529646	1.30515	
1.35	0.595015	1.31186	
1.4	0.660704	1.31678	
1.45	0.726618	1.31942	
1.5	0.792635	1.31924	
1.55	0.858606	1.31564	
1.6	0.924352	1.30799	
1.65	0.989662	1.2956	
1.7	1.05429	1.27778	
1.75	1.11795	1.25381	
1.8	1.18034	1.223	
1.85	1.24109	1.18466	
1.9	1.29983	1.13818	
1.95	1.35614	1.08302	
2	1.40958	1.01875	
2.05	1.45969	0.945105	
2.1	1.50601	0.861981	
2.15	1.54805	0.769491	
2.2	1.58536	0.667977	
2.25	1.6175	0.558029	
2.3	1.64404	0.440491	
2.35	1.66463	0.316455	
2.4	1.67896	0.18724	
2.45	1.68678	0.0543592	
2.5	1.68794	-0.0805251	
2.55	1.68236	-0.215661	
2.6	1.67004	-0.349272	
2.65	1.65108	-0.479623	
2.7	1.62567	-0.605089	
2.75	1.59406	-0.724216	
2.8	1.55659	-0.835771	
2.85	1.51365	-0.938778	
2.9	1.46568	-1.03254	
2.95	1.41313	-1.11666	
3	1.3565	-1.191	
3.05	1.29627	-1.25569	
3.1	1.23292	-1.31109	
3.15	1.1669	-1.35775	
3.2	1.09865	-1.39635	
3.25	1.02855	-1.42771	
3.3	0.956954	-1.45268	
3.35	0.884176	-1.47217	
3.4	0.810475	-1.48708	
3.45	0.736069	-1.49828	
3.5	0.661134	-1.5066	
3.55	0.585804	-1.5128	
3.6	0.510176	-1.51758	
3.65	0.434313	-1.52154	
3.7	0.358251	-1.52521	
3.75	0.281996	-1.52904	
3.8	0.205538	-1.53338	
3.85	0.128847	-1.53849	
3.9	0.0518827	-1.54455	
3.95	-0.0254044	-1.55166	
4	-0.103067	-1.55984	
4.05	-0.181157	-1.56899	
4.1	-0.259721	-1.57897	
4.15	-0.338797	-1.58951	
4.2	-0.41841	-1.60027	
4.25	-0.498563	-1.6108	
4.3	-0.579241	-1.62058	
4.35	-0.660395	-1.62895	
4.4	-0.741946	-1.63516	
4.45	-0.823775	-1.63837	
4.5	-0.905719	-1.63761	
4.55	-0.987567	-1.63183	
4.6	-1.06905	-1.61988	
4.65	-1.14985	-1.60057	
4.7	-1.22958	-1.57261	
4.75	-1.30779	-1.53476	
4.8	-1.38397	-1.48575	
4.85	-1.45754	-1.42443	
4.9	-1.52789	-1.34977	
4.95	-1.59432	-1.26097	
5	-1.65614	-1.15748	
5.05	-1.71259	-1.03912	
5.1	-1.76295	-0.906112	
5.15	-1.80649	-0.759161	
5.2	-1.84252	-0.599455	
5.25	-1.87044	-0.428693	
5.3	-1.88971	-0.249049	
5.35	-1.89993	-0.0631138	
5.4	-1.90081	0.126199	
5.45	-1.89223	0.315776	
5.5	-1.87422	0.502451	
5.55	-1.84695	0.683155	
5.6	-1.81076	0.855069	
5.65	-1.76612	1.01575	
5.7	-1.71361	1.16324	
5.75	-1.65391	1.29613	
5.8	-1.58775	1.4136	
5.85	-1.51592	1.51537	
5.9	-1.43919	1.60173	
5.95	-1.35831	1.67337	
6	-1.27403	1.73139	
6.05	-1.18699	1.77714	
6.10001	-1.09779	1.81217	
6.15001	-1.00695	1.8381	
6.20001	-0.914898	1.8566	
6.25001	-0.821991	1.86926	
6.30001	-0.728501	1.87761	
6.35001	-0.634625	1.88304	
6.40001	-0.540495	1.88678	
6.45001	-0.44618	1.88992	
6.50001	-0.351702	1.89336	
6.55001	-0.257034	1.89783	
6.60001	-0.162119	1.90391	
6.65001	-0.0668707	1.91197	
6.70001	0.028812	1.92225	
6.75001	0.125041	1.9348	
6.80001	0.221928	1.94951	
6.85001	0.319578	1.9661	
6.90001	0.418079	1.98412	
6.95001	0.517494	2.00291	
7.00001	0.617851	2.02164	
7.05001	0.719133	2.03928	
7.10001	0.821269	2.05455	
7.15001	0.924122	2.06598	
7.20001	1.02748	2.07187	
7.25001	1.13103	2.07029	
7.30001	1.23439	2.05912	
7.35001	1.33704	2.03607	
7.40001	1.43835	1.99871	
7.45001	1.53759	1.9446	
7.50001	1.63387	1.87133	
7.55001	1.72622	1.7767	
7.60001	1.81355	1.65882	
7.65001	1.89467	1.51634	
7.70001	1.96835	1.34858	
7.75001	2.03333	1.15574	
7.80001	2.08838	0.939018	
7.85001	2.13232	0.700709	
7.90001	2.16414	0.44424	
7.95001	2.18297	0.174083	
8.00001	2.1882	-0.104409	
8.05001	2.17948	-0.385271	
8.10001	2.15679	-0.662266	
8.15001	2.12038	-0.929278	
8.20001	2.07083	-1.18069	
8.25001	2.00897	-1.41175	
8.30001	1.93586	-1.6188	
8.35001	1.85273	-1.79946	
8.40001	1.7609	-1.95266	
8.45001	1.66176	-2.07858	
8.50001	1.55664	-2.17847	
8.55001	1.44682	-2.25444	
8.60001	1.33346	-2.30923	
8.65001	1.21758	-2.34598	
8.70002	1.10004	-2.36795	
8.75002	0.981546	-2.37841	
8.80002	0.862628	-2.38046	
8.85002	0.743675	-2.37693	
8.90002	0.624934	-2.37032	
8.95002	0.506536	-2.36276	
9.00002	0.388504	-2.35603	
9.05002	0.270781	-2.35152	
9.10002	0.153245	-2.35027	
9.15002	0.0357223	-2.35296	
9.20002	-0.0819865	-2.35995	
9.25002	-0.200097	-2.37127	
9.30002	-0.318822	-2.38665	
9.35002	-0.438356	-2.40547	
9.40002	-0.558859	-2.42681	
9.45002	-0.68044	-2.44937	
9.50002	-0.803139	-2.47151	
9.55002	-0.926908	-2.49121	
9.60002	-1.05159	-2.50604	
9.65002	-1.17692	-2.51317	
9.70002	-1.30245	-2.50937	
9.75002	-1.4276	-2.49105	
9.80002	-1.55159	-2.45432	
9.85002	-1.67345	-2.39511	
9.90002	-1.79201	-2.30933	
9.95002	-1.90588	-2.1931	
10	-2.0135	-2.04303	
10.05	-2.11316	-1.85654	
10.1	-2.20301	-1.63226	
10.15	-2.28118	-1.37036	
10.2	-2.3458	-1.07287	
10.25	-2.39517	-0.743871	
10.3	-2.42779	-0.389523	
10.35	-2.44249	-0.0178848	
10.4	-2.43853	0.361496	
10.45	-2.41565	0.738201	
10.5	-2.37412	1.1017	
10.55	-2.31472	1.44217	
10.6	-2.23871	1.75124	
10.65	-2.14771	2.02258	
10.7	-2.04368	2.25225	
10.75	-1.92869	2.43876	
10.8	-1.8049	2.58289	
10.85	-1.67439	2.68736	
10.9	-1.53909	2.75629	
10.95	-1.40072	2.79474	
11	-1.26073	2.8082	
11.05	-1.1203	2.80218	
11.1	-0.980346	2.78193	
11.15	-0.841521	2.75219	
11.2	-0.704249	2.71708	
11.25	-0.568758	2.68006	
11.3	-0.435111	2.64395	
11.35	-0.303236	2.61088	
11.4	-0.172963	2.58243	
11.45	-0.0440492	2.55962	
11.5	0.083793	2.54298	
11.55	0.210873	2.53262	
11.6	0.3375	2.52821	
11.65	0.463961	2.52902	
11.7	0.590503	2.53396	
11.75	0.717313	2.54153	
11.8	0.844498	2.54986	
11.85	0.972067	2.55665	
11.9	1.09991	2.55923	
11.95	1.22777	2.55449	
12	1.35524	2.53895	
12.05	1.48173	2.50879	
12.1	1.60646	2.45994	
12.15	1.72844	2.3882	
12.2	1.84647	2.28945	
12.25	1.95917	2.15985	
12.3	2.06493	1.99621	
12.35	2.16205	1.79627	
12.4	2.24869	1.55911	
12.45	2.32301	1.28551	
12.5	2.38323	0.978166	
12.55	2.42772	0.641882	
12.6	2.45513	0.283517	
12.65	2.46447	-0.0882821	
12.7	2.45519	-0.463561	
12.75	2.42724	-0.831735	
12.8	2.38112	-1.18238	
12.85	2.31782	-1.50605	
12.9	2.23877	-1.79496	
12.95	2.14578	-2.04349	
13	2.04091	-2.24848	
13.05	1.92633	-2.40916	
13.1	1.80424	-2.52693	
13.15	1.67675	-2.60496	
13.2	1.54578	-2.64765	
13.25	1.41305	-2.66018	
13.3	1.27999	-2.64799	
13.35	1.14777	-2.61647	
13.4	1.01731	-2.57065	
13.45	0.889252	-2.51504	
13.5	0.76405	-2.45353	
13.55	0.64196	-2.38938	
13.6	0.523082	-2.32523	
13.65	0.407392	-2.26312	
13.7	0.294769	-2.20463	
13.75	0.18502	-2.15083	
13.8	0.0779031	-2.10246	
13.85	-0.0268583	-2.0599	
13.9	-0.129556	-2.02327	
13.95	-0.230483	-1.99246	
14	-0.329928	-1.96713	
14.05	-0.428156	-1.94677	
14.1	-0.525409	-1.93071	
14.15	-0.621889	-1.91811	
14.2	-0.717758	-1.90798	
14.25	-0.813124	-1.89919	
14.3	-0.908038	-1.89045	
14.35	-1.00248	-1.88033	
14.4	-1.09637	-1.86727	
14.45	-1.18954	-1.84959	
14.5	-1.28172	-1.82547	
14.55	-1.37258	-1.79306	
14.6	-1.46167	-1.75045	
14.65	-1.54847	-1.69577	
14.7	-1.63234	-1.62723	
14.75	-1.71258	-1.54324	
14.8	-1.78839	-1.44249	
14.85	-1.85893	-1.32408	
14.9	-1.92332	-1.1876	
14.95	-1.98064	-1.03327	
15	-2.03003	-0.861988	
15.05	-2.07065	-0.675417	
15.1	-2.10178	-0.475966	
15.15	-2.12281	-0.26676	
15.2	-2.1333	-0.0515344	
15.25	-2.133	0.165524	
15.3	-2.12189	0.37998	
15.35	-2.10014	0.587386	
15.4	-2.06816	0.783522	
15.45	-2.02656	0.964625	
15.5	-1.97613	1.12758	
15.55	-1.9178	1.27003	
15.6	-1.85262	1.3905	
15.65	-1.78169	1.48834	
15.7	-1.70615	1.56369	
15.75	-1.6271	1.6174	
15.8	-1.54562	1.65085	
15.85	-1.46268	1.66587	
15.9	-1.3792	1.66453	
15.95	-1.29596	1.64903	
16	-1.21363	1.62161	
16.05	-1.1328	1.58445	
16.1	-1.05392	1.53957	
16.15	-0.977365	1.48884	
16.2	-0.903397	1.43391	
16.25	-0.832214	1.37624	
16.3	-0.763938	1.31708	
16.35	-0.698631	1.25748	
16.4	-0.636304	1.19832	
16.45	-0.576927	1.14033	
16.5	-0.520435	1.08408	
16.55	-0.466736	1.03003	
16.6	-0.415716	0.978548	
16.65	-0.367243	0.9299	
16.7	-0.321173	0.884292	
16.75	-0.277353	0.841871	
16.8	-0.235622	0.802737	
16.85	-0.195815	0.766953	
16.9	-0.157764	0.734552	
16.95	-0.121301	0.705543	
17	-0.0862542	0.679918	
17.05	-0.0524566	0.657652	
17.1	-0.0197398	0.638713	
17.15	0.0120618	0.623057	
17.2	0.043112	0.610634	
17.25	0.0735718	0.601388	
17.3	0.103599	0.59526	
17.35	0.13335	0.592184	
17.4	0.162976	0.592093	
17.45	0.192625	0.594914	
17.5	0.222443	0.60057	
17.55	0.252571	0.60898	
17.6	0.283144	0.620056	
17.65	0.314296	0.633704	
17.7	0.346154	0.649823	
17.75	0.378841	0.6683	
17.8	0.412473	0.689013	
17.85	0.44716	0.711827	
17.9	0.483007	0.736589	
17.95	0.520108	0.763131	
18	0.55855	0.791261	
18.05	0.598411	0.820765	
18.1	0.639756	0.851398	
18.15	0.682639	0.882886	
18.2	0.727098	0.914916	
18.25	0.773157	0.947136	
18.3	0.82082	0.979149	
18.35	0.870071	1.01051	
18.4	0.920872	1.04071	
18.45	0.973157	1.0692	
18.5	1.02683	1.09536	
18.55	1.08178	1.11852	
18.6	1.13783	1.13793	
18.65	1.19479	1.15281	
18.7	1.25242	1.16232	
18.75	1.31045	1.16557	
18.8	1.36855	1.16167	
18.85	1.42635	1.14971	
18.9	1.48343	1.12881	
18.95	1.53935	1.09815	
19	1.59359	1.05698	
19.05	1.64564	1.0047	
19.1	1.69492	0.940896	
19.15	1.74087	0.865346	
19.2	1.78289	0.778106	
19.25	1.82041	0.679528	
19.3	1.85287	0.570288	
19.35	1.87975	0.451399	
19.4	1.90058	0.324207	
19.45	1.91497	0.190372	
19.5	1.92262	0.0518186	
19.55	1.92331	-0.0893193	
19.6	1.91694	-0.230782	
19.65	1.90353	-0.370271	
19.7	1.88321	-0.505546	
19.75	1.85621	-0.634517	
19.8	1.82286	-0.75533	
19.85	1.7836	-0.866436	
19.9	1.73893	-0.966639	
19.95	1.6894	-1.05513	
20	1.6356	-1.13146	
20.05	1.57814	-1.1956	
20.1	1.51762	-1.2478	
20.15	1.45465	-1.28863	
20.2	1.38976	-1.31888	
20.25	1.32349	-1.33953	
20.3	1.25629	-1.35167	
20.35	1.18859	-1.35645	
20.4	1.12073	-1.35505	
20.45	1.053	-1.34864	
20.5	0.985653	-1.33833	
20.55	0.918861	-1.32517	
20.6	0.852757	-1.31012	
20.65	0.787425	-1.29406	
20.7	0.722905	-1.27777	
20.75	0.659202	-1.26193	
20.8	0.596285	-1.24713	
20.85	0.534095	-1.23388	
20.9	0.472549	-1.2226	
20.95	0.411546	-1.21366	
21	0.350963	-1.20732	
21.05	0.290668	-1.20383	
21.1	0.230517	-1.20334	
21.15	0.170357	-1.20598	
21.2	0.11003	-1.21181	
21.25	0.0493768	-1.22088	
21.3	-0.0117656	-1.23317	
21.35	-0.0735576	-1.24863	
21.4	-0.136157	-1.26717	
21.45	-0.199716	-1.28864	
21.5	-0.264379	-1.31286	
21.55	-0.330282	-1.3396	
21.6	-0.397547	-1.36857	
21.65	-0.46628	-1.39939	
21.7	-0.53657	-1.43163	
21.75	-0.608481	-1.46478	
21.8	-0.682051	-1.49823	
21.85	-0.757285	-1.53125	
21.9	-0.834153	-1.56302	
21.95	-0.912579	-1.59257	
22	-0.992438	-1.6188	
22.0499	-1.07355	-1.64049	
22.0999	-1.15567	-1.65628	
22.1499	-1.23848	-1.66464	
22.1999	-1.32159	-1.66398	
22.2499	-1.40453	-1.65258	
22.2999	-1.48674	-1.6287	
22.3499	-1.56757	-1.59057	
22.3999	-1.6463	-1.53655	
22.4499	-1.7221	-1.46512	
22.4999	-1.79409	-1.37505	
22.5499	-1.86133	-1.26549	
22.5999	-1.92285	-1.13607	
22.6499	-1.97764	-0.98704	
22.6999	-2.02476	-0.819314	
22.7499	-2.06328	-0.634569	
22.7999	-2.09238	-0.435239	
22.8499	-2.11138	-0.224477	
22.8999	-2.11976	-0.00605607	
22.9499	-2.11718	0.215784	
22.9999	-2.10353	0.436548	
23.0499	-2.07893	0.651717	
23.0999	-2.04369	0.857003	
23.1499	-1.99838	1.04857	
23.1999	-1.9437	1.22326	
23.2499	-1.88053	1.37869	
23.2999	-1.80985	1.51335	
23.3499	-1.73271	1.62662	
23.3999	-1.65018	1.71869	
23.4499	-1.56329	1.79046	
23.4999	-1.47305	1.84342	
23.5499	-1.38037	1.87947	
23.5999	-1.28608	1.90081	
23.6499	-1.19087	1.90975	
23.6999	-1.09535	1.90864	
23.7499	-0.999979	1.89975	
23.7999	-0.905128	1.8852	
23.8499	-0.811054	1.86693	
23.8999	-0.717923	1.84666	
23.9499	-0.625816	1.82589	
23.9999	-0.534745	1.80587	
24.0499	-0.444657	1.78768	
24.0999	-0.355452	1.77214	
24.1499	-0.266988	1.75993	
24.1999	-0.179093	1.75153	
24.2499	-0.0915729	1.74727	
24.2999	-0.00421771	1.74733	
24.3499	0.0831893	1.75177	
24.3999	0.170866	1.76049	
24.4499	0.259024	1.7733	
24.4999	0.347864	1.78985	
24.5499	0.437566	1.80966	
24.5999	0.528286	1.83212	
24.6499	0.620147	1.85646	
24.6999	0.713231	1.88175	
24.7499	0.807571	1.90686	
24.7999	0.903142	1.9305	
24.8499	0.99985	1.95116	
24.8999	1.09753	1.96712	
24.9499	1.19591	1.97645	
24.9999	1.29464	1.97701	
25.0499	1.39325	1.96651	
25.0999	1.49115	1.9425	
25.1499	1.58765	1.90249	
25.1999	1.6819	1.844	
25.2499	1.77296	1.7647	
25.2999	1.85976	1.66256	
25.3499	1.94114	1.536	
25.3999	2.01587	1.38408	
25.4499	2.08267	1.20669	
25.4999	2.1403	1.00471	
25.5499	2.18755	0.780097	
25.5999	2.22333	0.535981	
25.6499	2.24672	0.276585	
25.6999	2.25702	0.00710997	
25.7499	2.2538	-0.266511	
25.7999	2.23695	-0.537936	
25.8499	2.20664	-0.8008	
25.8999	2.16337	-1.04912	
25.9499	2.10795	-1.27764	
25.9999	2.0414	-1.48219	
26.0499	1.96497	-1.65981	
26.0999	1.88001	-1.8089	
26.1499	1.78796	-1.92915	
26.1999	1.69024	-2.0214	
26.2499	1.58824	-2.08746	
26.2999	1.48322	-2.12987	
26.3499	1.37634	-2.15164	
26.3999	1.26858	-2.156	
26.4499	1.16078	-2.14626	
26.4999	1.05361	-2.12559	
26.5499	0.947571	-2.09696	
26.5999	0.843033	-2.06304	
26.6499	0.740232	-2.02616	
26.6999	0.639293	-1.98832	
26.7499	0.540243	-1.95118	
26.7999	0.443031	-1.91609	
26.8499	0.347542	-1.8841	
26.8999	0.253612	-1.85603	
26.9499	0.161038	-1.83243	
26.9999	0.0695914	-1.81368	
27.0499	-0.0209723	-1.79998	
27.0999	-0.110906	-1.79134	
27.1499	-0.20046	-1.78766	
27.1999	-0.289881	-1.78867	
27.2499	-0.379398	-1.79399	
27.2999	-0.469219	-1.80308	
27.3499	-0.559525	-1.81528	
27.3999	-0.650461	-1.82979	
27.4499	-0.74213	-1.84563	
27.4999	-0.834584	-1.86169	
27.5499	-0.927819	-1.87668	
27.5999	-1.02176	-1.88912	
27.6499	-1.11626	-1.89735	
27.6999	-1.21109	-1.89955	
27.7499	-1.30591	-1.89373	
27.7999	-1.4003	-1.87775	
27.8499	-1.49373	-1.84941	
27.8999	-1.58555	-1.80644	
27.9499	-1.67499	-1.74666	
27.9999	-1.7612	-1.66803	
28.0499	-1.8432	-1.56881	
28.0999	-1.91997	-1.44768	
28.1499	-1.99038	-1.30392	
28.1999	-2.05331	-1.13755	
28.2499	-2.10765	-0.949437	
28.2999	-2.15234	-0.741418	
28.3499	-2.1864	-0.516314	
28.3999	-2.20906	-0.277897	
28.4499	-2.21968	-0.0307672	
28.4999	-2.21791	0.21985	
28.5499	-2.20365	0.468375	
28.5998	-2.17706	0.709199	
28.6498	-2.13859	0.937012	
28.6998	-2.08897	1.14712	
28.7498	-2.02911	1.3357	
28.7998	-1.96012	1.49999	
28.8498	-1.88324	1.63834	
28.8998	-1.79978	1.75024	
28.9498	-1.71104	1.83619	
28.9998	-1.61831	1.89755	
29.0498	-1.52279	1.93636	
29.0998	-1.42557	1.95514	
29.1498	-1.32763	1.95665	
29.1998	-1.22979	1.94376	
29.2498	-1.13275	1.9193	
29.2998	-1.03703	1.88593	
29.3498	-0.943075	1.84612	
29.3998	-0.851163	1.80204	
29.4498	-0.76149	1.75559	
29.4998	-0.674155	1.7084	
29.5498	-0.589179	1.66182	
29.5998	-0.506518	1.61694	
29.6498	-0.426077	1.57466	
29.6998	-0.347718	1.53565	
29.7498	-0.271271	1.50043	
29.7998	-0.196542	1.46938	
29.8498	-0.12332	1.44273	
29.8998	-0.0513831	1.42063	
29.9498	0.0194976	1.40313	
29.9998	0.0895511	1.3902	
30.0498	0.159005	1.38174	
30.0998	0.22808	1.37758	
30.1498	0.29699	1.37751	
30.1998	0.365935	1.38123	
30.2498	0.4351	1.3884	
30.2998	0.504654	1.39863	
30.3498	0.574743	1.41144	
30.3998	0.645489	1.42628	
30.4498	0.716987	1.44254	
30.4998	0.789298	1.4595	
30.5498	0.862448	1.47639	
30.5998	0.936422	1.4923	
30.6498	1.01116	1.50624	
30.6998	1.08654	1.51713	
30.7498	1.16241	1.52378	
30.7998	1.23853	1.5249	
30.8498	1.31462	1.51914	
30.8998	1.3903	1.50508	
30.9498	1.46515	1.48129	
30.9998	1.53865	1.44635	
31.0498	1.61025	1.39891	
31.0998	1.67929	1.33777	
31.1498	1.74508	1.2619	
31.1998	1.80688	1.1706	
31.2498	1.86391	1.06352	
31.2998	1.91538	0.940732	
31.3498	1.96052	0.802852	
31.3998	1.99859	0.651029	
31.4498	2.02891	0.486988	
31.4998	2.05091	0.31301	
31.5498	2.06412	0.131868	
31.5998	2.06823	-0.053262	
31.6498	2.06307	-0.238937	
31.6998	2.04868	-0.421608	
31.7498	2.02523	-0.597788	
31.7998	1.9931	-0.764231	
31.8498	1.95281	-0.918086	
31.8998	1.90501	-1.05702	
31.9498	1.85048	-1.17931	
31.9998	1.79006	-1.28388	
32.0498	1.72463	-1.3703	
32.0998	1.65511	-1.43872	
32.1498	1.58238	-1.48982	
32.1998	1.5073	-1.52473	
32.2498	1.43066	-1.54487	
32.2998	1.35318	-1.55189	
32.3498	1.27549	-1.54756	
32.3998	1.19814	-1.53367	
32.4498	1.12158	-1.512	
32.4998	1.04619	-1.48421	
32.5498	0.972245	-1.45188	
32.5998	0.899966	-1.4164	
32.6498	0.829491	-1.37903	
32.6998	0.760901	-1.34087	
32.7498	0.694225	-1.30285	
32.7998	0.629447	-1.26577	
32.8498	0.56651	-1.2303	
32.8998	0.505329	-1.19698	
32.9498	0.44579	-1.16626	
32.9998	0.38776	-1.13847	
33.0498	0.331088	-1.11388	
33.0998	0.275612	-1.0927	
33.1498	0.221159	-1.07507	
33.1998	0.167551	-1.06108	
33.2498	0.114605	-1.05078	
33.2998	0.0621355	-1.04419	
33.3498	0.0099579	-1.04128	
33.3998	-0.042112	-1.04201	
33.4498	-0.0942555	-1.04631	
33.4998	-0.14665	-1.05407	
33.5498	-0.199467	-1.06517	
33.5998	-0.252872	-1.07945	
33.6498	-0.307023	-1.09675	
33.6998	-0.362067	-1.11683	
33.7498	-0.418141	-1.13946	
33.7998	-0.47537	-1.16434	
33.8498	-0.533861	-1.19115	
33.8998	-0.593706	-1.21949	
33.9498	-0.654978	-1.24892	
33.9998	-0.717723	-1.27894	
34.0498	-0.781965	-1.30895	
34.0998	-0.847694	-1.3383	
34.1498	-0.914868	-1.36622	
34.1998	-0.983405	-1.39187	
34.2498	-1.05318	-1.41431	
34.2998	-1.12402	-1.43248	
34.3498	-1.19569	-1.44526	
34.3998	-1.26792	-1.45142	
34.4498	-1.34034	-1.44967	
34.4998	-1.41256	-1.43865	
34.5498	-1.48409	-1.41702	
34.5998	-1.55439	-1.38345	
34.6498	-1.62283	-1.3367	
34.6998	-1.68875	-1.27567	
34.7498	-1.75143	-1.19949	
34.7998	-1.8101	-1.10757	
34.8498	-1.86397	-0.999703	
34.8998	-1.91225	-0.876137	
34.9498	-1.95416	-0.73761	
34.9998	-1.98898	-0.585405	
35.0498	-2.01604	-0.421353	
35.0998	-2.03478	-0.24781	
35.1497	-2.04477	-0.0675869	
35.1997	-2.04571	0.116146	
35.2497	-2.03746	0.299998	
35.2997	-2.02008	0.480517	
35.3497	-1.99375	0.654353	
35.3997	-1.95887	0.818427	
35.4497	-1.91594	0.970073	
35.4997	-1.86561	1.10715	
35.5497	-1.80864	1.22814	
35.5997	-1.74583	1.33211	
35.6497	-1.67804	1.41879	
35.6997	-1.60613	1.48845	
35.7497	-1.53095	1.54187	
35.7997	-1.45328	1.58021	
35.8497	-1.37387	1.60493	
35.8997	-1.29337	1.61767	
35.9497	-1.21237	1.62019	
35.9997	-1.13135	1.61426	
36.0497	-1.05072	1.60159	
36.0997	-0.970785	1.58382	
36.1497	-0.891792	1.56245	
36.1997	-0.813901	1.53886	
36.2497	-0.737209	1.51423	
36.2997	-0.661755	1.48962	
36.3497	-0.587528	1.46592	
36.3997	-0.514472	1.44388	
36.4497	-0.442496	1.42413	
36.4997	-0.371481	1.40717	
36.5497	-0.301282	1.39338	
36.5997	-0.231735	1.38307	
36.6497	-0.162666	1.37645	
36.6997	-0.0938867	1.37364	
36.7497	-0.0252064	1.37471	
36.7997	0.0435694	1.37966	
36.8497	0.112634	1.38842	
36.8997	0.182177	1.40086	
36.9497	0.252379	1.4168	
36.9997	0.323414	1.43598	
37.0497	0.395439	1.45808	
37.0997	0.468596	1.48269	
37.1497	0.543003	1.50935	
37.1997	0.618757	1.53746	
37.2497	0.695922	1.56636	
37.2997	0.774526	1.59524	
37.3497	0.854558	1.62319	
37.3997	0.935958	1.64917	
37.4497	1.01861	1.67196	
37.4997	1.10234	1.69025	
37.5497	1.18691	1.70253	
37.5997	1.27198	1.70719	
37.6497	1.35717	1.7025	
37.6997	1.44197	1.68664	
37.7497	1.52582	1.65773	
37.7997	1.60802	1.61396	
37.8497	1.68782	1.55358	
37.8997	1.76436	1.47506	
37.9497	1.83674	1.37719	
37.9997	1.90396	1.25918	
38.0497	1.96502	1.12078	
38.0997	2.01892	0.962436	
38.1497	2.06466	0.78531	
38.1997	2.10133	0.591381	
38.2497	2.12814	0.383423	
38.2997	2.14443	0.16495	
38.3497	2.14972	-0.059914	
38.3997	2.14375	-0.286614	
38.4497	2.12649	-0.510398	
38.4997	2.09815	-0.72658	
38.5497	2.05915	-0.930798	
38.5997	2.01015	-1.11925	
38.6497	1.95196	-1.2889	
38.6997	1.88556	-1.43757	
38.7497	1.81201	-1.56403	
38.7997	1.73241	-1.66796	
38.8497	1.64789	-1.74984	
38.8997	1.55954	-1.81087	
38.9497	1.46837	-1.85281	
38.9997	1.37532	-1.87778	
39.0497	1.28121	-1.88812	
39.0997	1.18673	-1.8863	
39.1497	1.09247	-1.87472	
39.1997	0.998878	-1.85568	
39.2497	0.906311	-1.83133	
39.2997	0.81501	-1.80356	
39.3497	0.725123	-1.77408	
39.3997	0.636721	-1.74433	
39.4497	0.549801	-1.71553	
39.4997	0.464303	-1.68868	
39.5497	0.380121	-1.6646	
39.5997	0.297108	-1.64392	
39.6497	0.215088	-1.6271	
39.6997	0.133865	-1.61448	
39.7497	0.0532248	-1.60625	
39.7997	-0.0270519	-1.60249	
39.8497	-0.107189	-1.6032	
39.8997	-0.187409	-1.60824	
39.9497	-0.267925	-1.6174	
39.9997	-0.34894	-1.63035	
40.0497	-0.430638	-1.64668	
40.0997	-0.513181	-1.66587	
40.1497	-0.596704	-1.68727	
40.1997	-0.681309	-1.71011	
40.2497	-0.767056	-1.73351	
40.2997	-0.853959	-1.7564	
40.3497	-0.941978	-1.77759	
40.3997	-1.03101	-1.79572	
40.4497	-1.12088	-1.80925	
40.4997	-1.21135	-1.81647	
40.5497	-1.30206	-1.81556	
40.5997	-1.39259	-1.80451	
40.6497	-1.48241	-1.78129	
40.6997	-1.57087	-1.74377	
40.7497	-1.65725	-1.68993	
40.7997	-1.7407	-1.61784	
40.8497	-1.82028	-1.52587	
40.8997	-1.89499	-1.41276	
40.9497	-1.96377	-1.2778	
40.9997	-2.02552	-1.12093	
41.0497	-2.07916	-0.942912	
41.0997	-2.12366	-0.745363	
41.1497	-2.15806	-0.530838	
41.1997	-2.18158	-0.302778	
41.2497	-2.19358	-0.0654175	
41.2997	-2.19367	0.176392	
41.3497	-2.18168	0.417428	
41.3997	-2.15773	0.652383	
41.4497	-2.12217	0.876172	
41.4997	-2.07563	1.08423	
41.5497	-2.01893	1.27277	
41.5997	-1.95309	1.43894	
41.6497	-1.87925	1.58094	
41.6996	-1.79861	1.69803	
41.7496	-1.71243	1.79045	
41.7996	-1.62192	1.85929	
41.8496	-1.52824	1.90632	
41.8996	-1.43245	1.93382	
41.9496	-1.3355	1.94433	
41.9996	-1.23819	1.94058	
42.0496	-1.14122	1.92527	
42.0996	-1.04514	1.90098	
42.1496	-0.950347	1.87012	
42.1996	-0.857161	1.83485	
42.2496	-0.765774	1.79709	
42.2996	-0.676292	1.75847	
42.3496	-0.588742	1.72036	
42.3996	-0.503084	1.68391	
42.4496	-0.419225	1.65003	
42.4996	-0.337026	1.61942	
42.5496	-0.256319	1.59265	
42.5996	-0.176906	1.57008	
42.6496	-0.0985751	1.55197	
42.6996	-0.0211001	1.53847	
42.7496	0.055749	1.5296	
42.7996	0.132203	1.5253	
42.8496	0.20849	1.52542	
42.8996	0.284826	1.52973	
42.9496	0.361419	1.53792	
42.9996	0.438457	1.54959	
43.0496	0.516107	1.56424	
43.0996	0.594513	1.5813	
43.1496	0.673785	1.60009	
43.1996	0.754	1.61981	
43.2496	0.835194	1.63955	
43.2996	0.917354	1.65828	
43.3496	1.00041	1.67481	
43.3996	1.08425	1.68785	
43.4496	1.16866	1.69595	
43.4996	1.25339	1.69754	
43.5496	1.33809	1.69095	
43.5996	1.42232	1.6744	
43.6496	1.50557	1.6461	
43.6996	1.58723	1.60426	
43.7496	1.66659	1.54718	
43.7996	1.74288	1.47333	
43.8496	1.81524	1.38147	
43.8996	1.88276	1.27074	
43.9496	1.9445	1.14077	
43.9996	1.9995	0.991816	
44.0496	2.04683	0.824815	
44.0996	2.08559	0.641454	
44.1496	2.11502	0.44418	
44.1996	2.13445	0.236155	
44.2496	2.1434	0.0211568	
44.2996	2.14156	-0.196578	
44.3496	2.12887	-0.412563	
44.3996	2.10546	-0.622295	
44.4496	2.07171	-0.821503	
44.4996	2.02817	-1.00638	
44.5496	1.97562	-1.17376	
44.5996	1.91494	-1.32129	
44.6496	1.84716	-1.44747	
44.6996	1.77334	-1.55165	
44.7496	1.69459	-1.63401	
44.7996	1.61198	-1.69543	
44.8496	1.52654	-1.73736	
44.8996	1.43922	-1.76166	
44.9496	1.35088	-1.77048	
44.9996	1.26226	-1.76609	
45.0496	1.17401	-1.75079	
45.0996	1.08663	-1.72681	
45.1496	1.00053	-1.69625	
45.1996	0.916024	-1.661	
45.2496	0.833324	-1.62278	
45.2996	0.75256	-1.58306	
45.3496	0.673791	-1.54313	
45.3996	0.597016	-1.50406	
45.4496	0.522181	-1.46672	
45.4996	0.44919	-1.43183	
45.5496	0.377915	-1.39997	
45.5996	0.308199	-1.37156	
45.6496	0.239865	-1.34692	
45.6996	0.172721	-1.3263	
45.7496	0.106565	-1.30982	
45.7996	0.0411894	-1.29756	
45.8496	-0.0236178	-1.28953	
45.8996	-0.0880674	-1.28568	
45.9496	-0.152367	-1.2859	
45.9996	-0.216719	-1.29004	
46.0496	-0.281316	-1.29791	
46.0996	-0.346343	-1.30925	
46.1496	-0.41197	-1.32376	
46.1996	-0.47835	-1.34109	
46.2496	-0.545619	-1.3608	
46.2996	-0.613891	-1.38242	
46.3496	-0.683254	-1.40539	
46.3996	-0.753767	-1.42905	
46.4496	-0.825455	-1.45267	
46.4996	-0.898307	-1.47541	
46.5496	-0.972267	-1.49634	
46.5996	-1.04723	-1.51442	
46.6496	-1.12304	-1.52847	
46.6996	-1.19948	-1.53725	
46.7496	-1.27627	-1.5394	
46.7996	-1.35305	-1.53348	
46.8496	-1.42941	-1.51801	
46.8996	-1.50486	-1.49148	
46.9496	-1.57881	-1.45244	
46.9996	-1.65062	-1.39951	
47.0496	-1.7196	-1.33149	
47.0996	-1.78496	-1.24744	
47.1496	-1.84591	-1.14674	
47.1996	-1.90161	-1.02922	
47.2496	-1.95123	-0.89519	
47.2996	-1.99394	-0.745544	
47.3496	-2.029	-0.581777	
47.3996	-2.05571	-0.405994	
47.4496	-2.07353	-0.220873	
47.4996	-2.08201	-0.0295805	
47.5496	-2.08091	0.16435	
47.5996	-2.07012	0.357179	
47.6496	-2.04976	0.545145	
47.6996	-2.02012	0.724653	
47.7496	-1.98165	0.892457	
47.7996	-1.93497	1.04582	
47.8496	-1.88084	1.18261	
47.8996	-1.82009	1.30139	
47.9496	-1.75364	1.40143	
47.9996	-1.68243	1.48265	
48.0496	-1.60738	1.54559	
48.0996	-1.5294	1.59128	
48.1496	-1.44933	1.62113	
48.1996	-1.36795	1.63685	
48.2495	-1.28594	1.64029	
48.2995	-1.20389	1.63338	
48.3495	-1.1223	1.61801	
48.3995	-1.04156	1.59601	
48.4495	-0.961984	1.56908	
48.4995	-0.883804	1.53878	
48.5495	-0.80717	1.50648	
48.5995	-0.732169	1.47339	
48.6495	-0.658826	1.44054	
48.6995	-0.587119	1.40881	
48.7495	-0.516984	1.37893	
48.7995	-0.448321	1.35149	
48.8495	-0.381001	1.32697	
48.8995	-0.314875	1.30572	
48.9495	-0.249776	1.28804	
48.9995	-0.185521	1.27412	
49.0495	-0.121923	1.26407	
49.0995	-0.0587848	1.25798	
49.1495	0.00409002	1.25584	
49.1995	0.0668996	1.25763	
49.2495	0.129839	1.26324	
49.2995	0.193098	1.27255	
49.3495	0.25686	1.28537	
49.3995	0.321297	1.30147	
49.4495	0.386571	1.32059	
49.4995	0.452829	1.34237	
49.5495	0.520197	1.36642	
49.5995	0.588786	1.39227	
49.6495	0.658676	1.41936	
49.6995	0.729924	1.44708	
49.7495	0.802551	1.47469	
49.7995	0.87654	1.50135	
49.8495	0.951834	1.52611	
49.8995	1.02832	1.54792	
49.9495	1.10584	1.5656	
49.9995	1.18418	1.57783	
50.0495	1.26303	1.58321	
50.0995	1.34203	1.58023	
50.1495	1.42076	1.56732	
50.1995	1.49869	1.54289	
50.2495	1.57523	1.50534	
50.2995	1.6497	1.45321	
50.3495	1.72136	1.38514	
50.3995	1.7894	1.30008	
50.4495	1.85295	1.19729	
50.4995	1.91114	1.07651	
50.5495	1.96307	0.93798	
50.5995	2.00785	0.782586	
50.6495	2.04468	0.611854	
50.6995	2.07281	0.427981	
50.7495	2.09162	0.233796	
50.7995	2.10064	0.0326735	
50.8495	2.09957	-0.171599	
50.8995	2.0883	-0.374998	
50.9495	2.06694	-0.573464	
50.9995	2.03576	-0.763117	
51.0495	1.99527	-0.940455	
51.0995	1.9461	-1.10253	
51.1495	1.88905	-1.24707	
51.1995	1.82502	-1.37256	
51.2495	1.75496	-1.47825	
51.2995	1.67986	-1.56412	
51.3495	1.60072	-1.6308	
51.3995	1.51846	-1.67947	
51.4495	1.43398	-1.7117	
51.4995	1.34806	-1.72936	
51.5495	1.26143	-1.73449	
51.5995	1.17467	-1.72916	
51.6495	1.08828	-1.71543	
51.6995	1.00267	-1.69524	
51.7495	0.918125	-1.67041	
51.7995	0.834868	-1.64257	
51.8495	0.753028	-1.61315	
51.8995	0.67267	-1.5834	
51.9495	0.593798	-1.5544	
51.9995	0.516362	-1.52703	
52.0495	0.440273	-1.50201	
52.0995	0.365406	-1.47993	
52.1495	0.291609	-1.46124	
52.1995	0.218707	-1.44627	
52.2495	0.146513	-1.43526	
52.2995	0.0748252	-1.42835	
52.3495	0.00343873	-1.4256	
52.3995	-0.0678548	-1.42699	
52.4495	-0.139262	-1.43245	
52.4995	-0.210984	-1.44182	
52.5495	-0.283214	-1.45487	
52.5995	-0.356133	-1.47132	
52.6495	-0.429905	-1.4908	
52.6995	-0.504678	-1.51286	
52.7495	-0.580574	-1.53696	
52.7995	-0.657686	-1.56246	
52.8495	-0.736075	-1.58863	
52.8995	-0.815765	-1.61459	
52.9495	-0.896731	-1.63937	
52.9995	-0.978901	-1.66182	
53.0495	-1.06214	-1.68069	
53.0995	-1.14626	-1.69457	
53.1495	-1.23098	-1.7019	
53.1995	-1.31595	-1.70101	
53.2495	-1.40075	-1.69013	
53.2995	-1.48485	-1.66743	
53.3495	-1.56763	-1.63106	
53.3995	-1.6484	-1.57925	
53.4495	-1.72635	-1.51037	
53.4995	-1.80062	-1.42304	
53.5495	-1.87027	-1.31624	
53.5995	-1.93433	-1.18945	
53.6495	-1.9918	-1.04274	
53.6995	-2.04169	-0.876876	
53.7495	-2.08306	-0.693399	
53.7995	-2.11507	-0.494634	
53.8495	-2.137	-0.283676	
53.8995	-2.14828	-0.0642936	
53.9495	-2.14855	0.159221	
53.9995	-2.13765	0.382255	
54.0495	-2.11567	0.600123	
54.0995	-2.08293	0.80832	
54.1495	-2.03996	1.00277	
54.1995	-1.98749	1.18006	
54.2495	-1.9264	1.33755	
54.2995	-1.8577	1.47352	
54.3495	-1.78249	1.58715	
54.3995	-1.70188	1.67849	
54.4495	-1.61697	1.74834	
54.4995	-1.52881	1.79813	
54.5495	-1.4384	1.82976	
54.5995	-1.3466	1.84543	
54.6495	-1.25418	1.8475	
54.6995	-1.16181	1.83838	
54.7495	-1.07	1.8204	
54.7994	-0.979184	1.79577	
54.8494	-0.889659	1.76648	
54.8994	-0.801638	1.73435	
54.9494	-0.715247	1.70093	
54.9994	-0.630533	1.66755	
55.0494	-0.54748	1.63535	
55.0994	-0.466019	1.60525	
55.1494	-0.386035	1.57797	
55.1994	-0.307381	1.55409	
55.2494	-0.229881	1.53404	
55.2994	-0.15334	1.51813	
55.3494	-0.0775488	1.50654	
55.3994	-0.00228976	1.49936	
55.4494	0.0726577	1.4966	
55.4994	0.147513	1.49816	
55.5494	0.222491	1.50388	
55.5994	0.297797	1.51352	
55.6494	0.373622	1.52675	
55.6994	0.450142	1.54317	
55.7494	0.527509	1.56227	
55.7994	0.605851	1.58348	
55.8494	0.685264	1.60608	
55.8994	0.765808	1.62927	
55.9494	0.847499	1.65211	
55.9994	0.930307	1.67352	
56.0494	1.01415	1.6923	
56.0994	1.09887	1.70709	
56.1494	1.18425	1.71638	
56.1994	1.27	1.71855	
56.2494	1.35573	1.71185	
56.2994	1.44099	1.69445	
56.3494	1.52521	1.66448	
56.3994	1.60775	1.6201	
56.4494	1.68785	1.55956	
56.4994	1.7647	1.48133	
56.5494	1.83739	1.38414	
56.5994	1.90497	1.26721	
56.6494	1.96644	1.13024	
56.6994	2.02082	0.973634	
56.7494	2.06713	0.798508	
56.7994	2.10448	0.606781	
56.8494	2.13208	0.401165	
56.8994	2.14926	0.185107	
56.9494	2.15557	-0.0373266	
56.9994	2.15074	-0.261634	
57.0494	2.13473	-0.483105	
57.0994	2.10776	-0.697073	
57.1494	2.07024	-0.899181	
57.1994	2.02281	-1.08561	
57.2494	1.9663	-1.25329	
57.2994	1.90168	-1.4	
57.3494	1.82999	-1.52443	
57.3994	1.75237	-1.62618	
57.4494	1.66994	-1.70569	
57.4994	1.58379	-1.76409	
57.5494	1.49497	-1.80304	
57.5994	1.40442	-1.82463	
57.6494	1.31297	-1.83116	
57.6994	1.22136	-1.82504	
57.7494	1.13019	-1.80865	
57.7994	1.03993	-1.78429	
57.8494	0.950972	-1.75408	
57.8994	0.863578	-1.71992	
57.9494	0.777925	-1.68352	
57.9994	0.694109	-1.64632	
58.0494	0.612154	-1.60958	
58.0994	0.532026	-1.57431	
58.1494	0.45364	-1.54135	
58.1994	0.376873	-1.51137	
58.2494	0.30157	-1.48488	
58.2994	0.227552	-1.46226	
58.3494	0.154621	-1.44378	
58.3994	0.0825693	-1.4296	
58.4494	0.0111803	-1.4198	
58.4994	-0.0597651	-1.41437	
58.5494	-0.130485	-1.41324	
58.5994	-0.201192	-1.41628	
58.6494	-0.272093	-1.42325	
58.6994	-0.343381	-1.43391	
58.7494	-0.415236	-1.4479	
58.7994	-0.487819	-1.4648	
58.8494	-0.561271	-1.48412	
58.8994	-0.635705	-1.50529	
58.9494	-0.711205	-1.52763	
58.9994	-0.78782	-1.55036	
59.0494	-0.865558	-1.5726	
59.0994	-0.944382	-1.59334	
59.1494	-1.0242	-1.61146	
59.1994	-1.10487	-1.62568	
59.2494	-1.18618	-1.63464	
59.2994	-1.26784	-1.63684	
59.3494	-1.3495	-1.63068	
59.3994	-1.43072	-1.6145	
59.4494	-1.51097	-1.58661	
59.4994	-1.58965	-1.54535	
59.5494	-1.66607	-1.48914	
59.5994	-1.73947	-1.41659	
59.6494	-1.80902	-1.32659	
59.6994	-1.87383	-1.2184	
59.7494	-1.93299	-1.09176	
59.7994	-1.9856	-0.946977	
59.8494	-2.03074	-0.785032	
59.8994	-2.0676	-0.607587	
59.9494	-2.09542	-0.417013	
59.9994	-2.11359	-0.216342	
60.0494	-2.12165	-0.00916758	
60.0994	-2.11932	0.200504	
60.1494	-2.10654	0.408443	
60.1994	-2.08344	0.610415	
60.2494	-2.05038	0.802408	
60.2994	-2.00789	0.980843	
60.3494	-1.95668	1.14275	
60.3994	-1.89762	1.2859	
60.4494	-1.83166	1.40885	
60.4994	-1.75981	1.51099	
60.5494	-1.68311	1.59243	
60.5994	-1.60258	1.65398	
60.6494	-1.51921	1.69695	
60.6994	-1.43391	1.72309	
60.7494	-1.34748	1.73439	
60.7994	-1.26064	1.733	
60.8494	-1.17401	1.72107	
60.8994	-1.08809	1.70073	
60.9494	-1.00326	1.67397	
60.9994	-0.919838	1.64263	
61.0494	-0.838023	1.60833	
61.0994	-0.757948	1.57253	
61.1494	-0.679673	1.53646	
61.1994	-0.6032	1.50118	
61.2494	-0.528478	1.46755	
61.2994	-0.455416	1.43628	
61.3493	-0.383889	1.40795	
61.3993	-0.313745	1.38299	
61.4493	-0.244811	1.36173	
61.4993	-0.1769	1.34441	
61.5493	-0.109812	1.33116	
61.5993	-0.0433433	1.32207	
61.6493	0.0227151	1.31715	
61.6993	0.0885712	1.31635	
61.7493	0.15443	1.31957	
61.7993	0.22049	1.32664	
61.8493	0.286942	1.33736	
61.8993	0.353965	1.35147	
61.9493	0.421725	1.36864	
61.9993	0.490371	1.38848	
62.0493	0.56003	1.41054	
62.0993	0.630806	1.43429	
62.1493	0.702778	1.45912	
62.1993	0.775988	1.4843	
62.2493	0.850446	1.50904	
62.2993	0.926117	1.53241	
62.3493	1.00292	1.55337	
62.3993	1.08072	1.57076	
62.4493	1.15932	1.58332	
62.4993	1.23846	1.58965	
62.5493	1.31782	1.58827	
62.5993	1.39699	1.57762	
62.6493	1.47547	1.55609	
62.6993	1.55272	1.52209	
62.7493	1.62808	1.47409	
62.7993	1.70085	1.4107	
62.8493	1.77023	1.33074	
62.8993	1.83538	1.23339	
62.9493	1.89545	1.11819	
62.9993	1.94952	0.985245	
63.0493	1.99674	0.835212	
63.0993	2.03625	0.669408	
63.1493	2.0673	0.489819	
63.1993	2.08924	0.299074	
63.2493	2.10154	0.100382	
63.2993	2.10386	-0.102593	
63.3493	2.09604	-0.305887	
63.3993	2.0781	-0.505441	
63.4493	2.05029	-0.697302	
63.4993	2.01303	-0.877836	
63.5493	1.96693	-1.04391	
63.5993	1.91275	-1.19302	
63.6493	1.85134	-1.32342	
63.6993	1.78367	-1.4341	
63.7493	1.7107	-1.52483	
63.7993	1.63345	-1.59603	
63.8493	1.55287	-1.6487	
63.8993	1.46987	-1.68429	
63.9493	1.38528	-1.7046	
63.9993	1.29984	-1.71159	
64.0493	1.2142	-1.70734	
64.0993	1.12888	-1.6939	
64.1493	1.04434	-1.67326	
64.1993	0.960891	-1.64725	
64.2493	0.878798	-1.61758	
64.2993	0.798222	-1.58574	
64.3493	0.719255	-1.55303	
64.3993	0.641928	-1.52058	
64.4493	0.566216	-1.48933	
64.4993	0.492049	-1.46007	
64.5493	0.419321	-1.43342	
64.5993	0.347895	-1.40988	
64.6493	0.27761	-1.38985	
64.6993	0.208288	-1.37359	
64.7494	0.139737	-1.3613	
64.7994	0.0717572	-1.35309	
64.8494	0.00414439	-1.34901	
64.8994	-0.0633079	-1.34903	
64.9494	-0.130804	-1.35306	
64.9994	-0.198543	-1.36097	
65.0494	-0.266716	-1.37256	
65.0994	-0.335505	-1.38756	
65.1494	-0.405077	-1.40568	
65.1994	-0.475581	-1.4265	
65.2494	-0.54715	-1.44958	
65.2994	-0.619887	-1.47436	
65.3494	-0.693871	-1.50023	
65.3994	-0.769146	-1.52643	
65.4494	-0.84572	-1.55213	
65.4994	-0.923553	-1.57636	
65.5494	-1.00256	-1.59804	
65.5994	-1.0826	-1.61595	
65.6494	-1.16346	-1.62875	
65.6994	-1.24487	-1.63498	
65.7494	-1.32649	-1.63305	
65.7994	-1.40787	-1.62132	
65.8494	-1.48852	-1.59809	
65.8994	-1.56784	-1.56167	
65.9494	-1.64514	-1.51044	
65.9994	-1.71967	-1.44294	
66.0494	-1.79059	-1.35794	
66.0994	-1.85704	-1.25458	
66.1494	-1.91807	-1.13246	
66.1994	-1.97276	-0.991707	
66.2494	-2.02019	-0.833123	
66.2994	-2.05949	-0.658192	
66.3494	-2.08986	-0.469121	
66.3995	-2.11065	-0.268805	
66.4495	-2.12133	-0.0607445	
66.4995	-2.12156	0.151094	
66.5495	-2.11121	0.362461	
66.5995	-2.09037	0.569041	
66.6495	-2.05931	0.766686	
66.6995	-2.01854	0.951632	
66.7495	-1.96872	1.12069	
66.7995	-1.91068	1.27141	
66.8495	-1.84535	1.40212	
66.8995	-1.77376	1.51199	
66.9495	-1.69693	1.60098	
66.9995	-1.61591	1.66973	
67.0495	-1.53168	1.7195	
67.0995	-1.44519	1.75195	
67.1495	-1.35726	1.76908	
67.1995	-1.26864	1.77303	
67.2495	-1.17996	1.76601	
67.2995	-1.09175	1.75021	
67.3495	-1.00442	1.72766	
67.3995	-0.918275	1.70029	
67.4495	-0.833546	1.66979	
67.4995	-0.750367	1.63768	
67.5495	-0.668805	1.60526	
67.5995	-0.588862	1.57362	
67.6495	-0.510487	1.54369	
67.6995	-0.433585	1.5162	
67.7495	-0.358029	1.49176	
67.7995	-0.283658	1.47081	
67.8495	-0.210296	1.45369	
67.8995	-0.137746	1.44065	
67.9495	-0.065804	1.4318	
67.9995	0.00574096	1.42721	
68.0496	0.0771018	1.42686	
68.0996	0.148489	1.43064	
68.1496	0.220109	1.43841	
68.1996	0.292156	1.44993	
68.2496	0.364816	1.4649	
68.2996	0.438256	1.48295	
68.3496	0.512625	1.50362	
68.3996	0.588047	1.52637	
68.4496	0.664619	1.55057	
68.4996	0.742402	1.57547	
68.5496	0.821423	1.60021	
68.5996	0.90166	1.62382	
68.6496	0.983042	1.64519	
68.6996	1.06544	1.66305	
68.7496	1.14867	1.67602	
68.7996	1.23245	1.68259	
68.8496	1.31646	1.68111	
68.8996	1.40025	1.66985	
68.9496	1.48334	1.64702	
68.9996	1.5651	1.61083	
69.0496	1.64486	1.55955	
69.0996	1.72184	1.4916	
69.1496	1.79519	1.40563	
69.1996	1.864	1.30068	
69.2496	1.92731	1.17624	
69.2996	1.98415	1.03236	
69.3496	2.03356	0.869806	
69.3996	2.07462	0.690058	
69.4496	2.10652	0.495372	
69.4996	2.12853	0.28874	
69.5496	2.14012	0.0738119	
69.5996	2.14091	-0.145255	
69.6497	2.13076	-0.363986	
69.6997	2.10974	-0.577826	
69.7497	2.07816	-0.782385	
69.7997	2.03651	-0.973681	
69.8497	1.98552	-1.14834	
69.8997	1.92603	-1.30377	
69.9497	1.85904	-1.43821	
69.9997	1.7856	-1.55082	
70.0497	1.70681	-1.64157	
70.0997	1.62374	-1.71117	
70.1497	1.53743	-1.76096	
70.1997	1.44887	-1.79273	
70.2497	1.35891	-1.80861	
70.2997	1.26833	-1.81088	
70.3497	1.17778	-1.80185	
70.3997	1.08779	-1.78382	
70.4497	0.998797	-1.75893	
70.4997	0.911113	-1.72917	
70.5497	0.824961	-1.69631	
70.5997	0.740477	-1.6619	
70.6497	0.657723	-1.62728	
70.6997	0.576696	-1.59357	
70.7497	0.497339	-1.5617	
70.7997	0.419552	-1.53242	
70.8497	0.343197	-1.50633	
70.8997	0.268109	-1.48386	
70.9497	0.194103	-1.46536	
70.9997	0.120979	-1.45105	
71.0497	0.0485243	-1.44103	
71.0997	-0.0234757	-1.43536	
71.1497	-0.0952383	-1.434	
71.1997	-0.166978	-1.43684	
71.2497	-0.238901	-1.4437	
71.2998	-0.311208	-1.45432	
71.3498	-0.384082	-1.4684	
71.3998	-0.45769	-1.48553	
71.4498	-0.532181	-1.50524	
71.4998	-0.607676	-1.52697	
71.5498	-0.684268	-1.55006	
71.5998	-0.762014	-1.57375	
71.6498	-0.840935	-1.59715	
71.6998	-0.921003	-1.61927	
71.7498	-1.00214	-1.63897	
71.7998	-1.08421	-1.65498	
71.8498	-1.167	-1.66591	
71.8998	-1.25026	-1.67023	
71.9498	-1.33361	-1.6663	
71.9998	-1.41664	-1.65241	
72.0498	-1.49881	-1.62678	
72.0998	-1.57953	-1.58768	
72.1498	-1.6581	-1.53343	
72.1998	-1.73373	-1.46251	
72.2498	-1.80559	-1.3737	
72.2998	-1.87276	-1.26611	
72.3498	-1.93431	-1.13936	
72.3998	-1.98928	-0.993647	
72.4498	-2.03674	-0.829849	
72.4998	-2.0758	-0.649569	
72.5498	-2.10568	-0.455161	
72.5998	-2.12569	-0.249685	
72.6498	-2.13535	-0.0368202	
72.6998	-2.13433	0.179291	
72.7498	-2.12252	0.394239	
72.7998	-2.10004	0.603575	
72.8498	-2.06723	0.803054	
72.8998	-2.02462	0.988864	
72.9499	-1.97293	1.15782	
72.9999	-1.91304	1.30751	
73.0499	-1.84592	1.43635	
73.0999	-1.77264	1.54362	
73.1499	-1.69426	1.62942	
73.1999	-1.61184	1.69453	
73.2499	-1.52642	1.74034	
73.2999	-1.43892	1.76863	
73.3499	-1.35019	1.78152	
73.3999	-1.26099	1.78123	
73.4499	-1.17195	1.77005	
73.4999	-1.08357	1.75019	
73.5499	-0.996271	1.72374	
73.5999	-0.910358	1.69262	
73.6499	-0.826043	1.65854	
73.6999	-0.743457	1.62299	
73.7499	-0.662658	1.58728	
73.7999	-0.58364	1.55248	
73.8499	-0.506347	1.51949	
73.8999	-0.43068	1.48904	
73.9499	-0.356505	1.4617	
73.9999	-0.283661	1.43791	
74.0499	-0.211966	1.418	
74.0999	-0.141225	1.40218	
74.1499	-0.0712298	1.39059	
74.1999	-0.00176906	1.38328	
74.2499	0.0673713	1.38022	
74.2999	0.136403	1.38135	
74.3499	0.205534	1.3865	
74.3999	0.274963	1.39547	
74.4499	0.344878	1.408	
74.4999	0.415452	1.42374	
74.5499	0.486842	1.4423	
74.6	0.559182	1.46318	
74.65	0.632581	1.48583	
74.7	0.707121	1.5096	
74.75	0.782846	1.53372	
74.8	0.859764	1.55732	
74.85	0.937837	1.57944	
74.9	1.01698	1.59895	
74.95	1.09704	1.61463	
75	1.17781	1.62512	
75.05	1.25901	1.62895	
75.1	1.34029	1.62454	
75.15	1.42123	1.61025	
75.2	1.50129	1.58439	
75.25	1.57989	1.54531	
75.3	1.65634	1.49144	
75.35	1.72988	1.42135	
75.4	1.7997	1.33391	
75.45	1.86491	1.22833	
75.5	1.92461	1.1043	
75.55	1.97787	0.962061	
75.6	2.0238	0.802495	
75.65	2.06156	0.627185	
75.7	2.09038	0.438411	
75.75	2.10964	0.23912	
75.8	2.11885	0.0328327	
75.85	2.11772	-0.176497	
75.9	2.10613	-0.384668	
75.95	2.08422	-0.58745	
76	2.05229	-0.780805	
76.05	2.01086	-0.961102	
76.1	1.96062	-1.1253	
76.15	1.9024	-1.27107	
76.2001	1.83715	-1.39689	
76.2501	1.76586	-1.50204	
76.3001	1.68958	-1.58655	
76.3501	1.60932	-1.65113	
76.4001	1.52606	-1.69706	
76.4501	1.44072	-1.72602	
76.5001	1.35411	-1.73998	
76.5501	1.26698	-1.74106	
76.6001	1.17992	-1.73143	
76.6501	1.09346	-1.7132	
76.7001	1.00799	-1.68839	
76.7501	0.92383	-1.65885	
76.8001	0.841189	-1.62624	
76.8501	0.760205	-1.59203	
76.9001	0.680942	-1.55747	
76.9501	0.603406	-1.52365	
77.0001	0.527548	-1.49145	
77.0501	0.45328	-1.46159	
77.1001	0.380475	-1.43467	
77.1501	0.308984	-1.41112	
77.2001	0.238631	-1.39129	
77.2501	0.169229	-1.37542	
77.3001	0.100577	-1.36365	
77.3501	0.03247	-1.35606	
77.4001	-0.0353021	-1.35265	
77.4501	-0.102948	-1.35338	
77.5001	-0.170672	-1.35811	
77.5501	-0.238674	-1.36668	
77.6001	-0.307143	-1.37886	
77.6501	-0.376254	-1.39435	
77.7001	-0.446171	-1.41279	
77.7501	-0.517035	-1.43375	
77.8001	-0.588966	-1.45674	
77.8502	-0.662058	-1.48117	
77.9002	-0.736374	-1.50633	
77.9502	-0.811941	-1.53146	
78.0002	-0.888747	-1.55566	
78.0502	-0.966732	-1.57789	
78.1002	-1.04578	-1.59703	
78.1502	-1.12573	-1.61179	
78.2002	-1.20633	-1.6208	
78.2502	-1.28729	-1.62255	
78.3002	-1.36822	-1.61545	
78.3502	-1.44865	-1.59783	
78.4002	-1.52804	-1.56803	
78.4502	-1.60575	-1.52442	
78.5002	-1.68109	-1.46548	
78.5502	-1.75327	-1.38988	
78.6002	-1.82143	-1.29659	
78.6502	-1.8847	-1.18499	
78.7002	-1.94216	-1.05494	
78.7502	-1.99288	-0.906902	
78.8002	-2.03599	-0.741994	
78.8502	-2.07066	-0.562032	
78.9002	-2.09619	-0.369528	
78.9502	-2.11197	-0.167632	
79.0002	-2.1176	0.0399797	
79.0502	-2.11283	0.249254	
79.1002	-2.09763	0.455966	
79.1502	-2.07219	0.655936	
79.2002	-2.03689	0.845249	
79.2502	-1.99231	1.02047	
79.3002	-1.93918	1.17879	
79.3502	-1.87837	1.31815	
79.4002	-1.81085	1.43732	
79.4502	-1.73764	1.53583	
79.5003	-1.65975	1.61395	
79.5503	-1.5782	1.67262	
79.6003	-1.49394	1.71324	
79.6503	-1.40785	1.73762	
79.7003	-1.32072	1.74777	
79.7503	-1.23324	1.74585	
79.8003	-1.14598	1.73402	
79.8503	-1.05941	1.71437	
79.9003	-0.9739	1.68884	
79.9503	-0.889724	1.65923	
80.0003	-0.807066	1.62713	
80.0503	-0.726033	1.59394	
80.1003	-0.646665	1.56085	
80.1503	-0.568945	1.52887	
80.2003	-0.492808	1.49883	
80.2503	-0.418148	1.47141	
80.3003	-0.344829	1.44713	
80.3503	-0.272687	1.4264	
80.4003	-0.201541	1.40953	
80.4503	-0.131197	1.3967	
80.5003	-0.0614499	1.38804	
80.5503	0.00790875	1.38359	
80.6003	0.0770892	1.38331	
80.6503	0.146299	1.38711	
80.7003	0.215741	1.39484	
80.7503	0.285609	1.40627	
80.8003	0.356084	1.42114	
80.8503	0.427335	1.43907	
80.9003	0.499509	1.45966	
80.9503	0.572733	1.48241	
81.0003	0.647107	1.50671	
81.0503	0.722702	1.53188	
81.1003	0.799549	1.55714	
81.1504	0.877643	1.58156	
81.2004	0.956927	1.60412	
81.2504	1.0373	1.62365	
81.3004	1.11858	1.63885	
81.3504	1.20054	1.64832	
81.4004	1.28288	1.65049	
81.4504	1.36521	1.64374	
81.5004	1.44706	1.62635	
81.5504	1.52787	1.5966	
81.6004	1.60702	1.55279	
81.6504	1.68377	1.49333	
81.7004	1.75733	1.41684	
81.7504	1.82682	1.32222	
81.8004	1.89135	1.2088	
81.8504	1.94997	1.07642	
81.9004	2.00173	0.925501	
81.9504	2.04572	0.75719	
82.0004	2.08111	0.573342	
82.0504	2.10714	0.376537	
82.1004	2.12322	0.170025	
82.1504	2.12891	-0.0423891	
82.2004	2.12396	-0.256512	
82.2504	2.10834	-0.467966	
82.3004	2.08224	-0.672422	
82.3504	2.04607	-0.865834	
82.4004	2.00041	-1.04465	
82.4504	1.94604	-1.20599	
82.5004	1.88385	-1.34776	
82.5504	1.81482	-1.4687	
82.6004	1.74002	-1.56838	
82.6504	1.6605	-1.64713	
82.7004	1.57729	-1.70594	
82.7505	1.49137	-1.74632	
82.8005	1.40363	-1.77015	
82.8505	1.31489	-1.77955	
82.9005	1.22583	-1.77675	
82.9505	1.13703	-1.76399	
83.0005	1.04898	-1.7434	
83.0505	0.962027	-1.71701	
83.1005	0.876451	-1.68664	
83.1505	0.79243	-1.65392	
83.2005	0.710063	-1.62024	
83.2505	0.629384	-1.58684	
83.3005	0.550366	-1.55471	
83.3505	0.472936	-1.52469	
83.4005	0.396981	-1.49744	
83.4505	0.322355	-1.47349	
83.5005	0.248888	-1.45324	
83.5505	0.176393	-1.43696	
83.6005	0.104668	-1.42484	
83.6505	0.0335033	-1.41698	
83.7005	-0.0373134	-1.41339	
83.7505	-0.107996	-1.41402	
83.8005	-0.178753	-1.41874	
83.8505	-0.249788	-1.42737	
83.9005	-0.321293	-1.43965	
83.9505	-0.393447	-1.45526	
84.0005	-0.466411	-1.4738	
84.0505	-0.540327	-1.4948	
84.1005	-0.615309	-1.51768	
84.1505	-0.691444	-1.54179	
84.2005	-0.768784	-1.56636	
84.2505	-0.847341	-1.59052	
84.3005	-0.927081	-1.61324	
84.3505	-1.00792	-1.63342	
84.4006	-1.08971	-1.64976	
84.4506	-1.17224	-1.66088	
84.5006	-1.25524	-1.66525	
84.5506	-1.33835	-1.66124	
84.6006	-1.42112	-1.64712	
84.6506	-1.50302	-1.62114	
84.7006	-1.58345	-1.58156	
84.7506	-1.6617	-1.52672	
84.8006	-1.73699	-1.45514	
84.8506	-1.80847	-1.36558	
84.9006	-1.87523	-1.25721	
84.9506	-1.93632	-1.12967	
85.0006	-1.9908	-0.983202	
85.0506	-2.03773	-0.818712	
85.1006	-2.07623	-0.637846	
85.1506	-2.10551	-0.442992	
85.2006	-2.12492	-0.237241	
85.2506	-2.13395	-0.0242927	
85.3006	-2.13231	0.1917	
85.3506	-2.11989	0.406327	
85.4006	-2.09682	0.615156	
85.4506	-2.06343	0.813968	
85.5006	-2.02029	0.998987	
85.5506	-1.96811	1.16707	
85.6006	-1.90777	1.31585	
85.6506	-1.84025	1.4438	
85.7006	-1.76661	1.55024	
85.7506	-1.68791	1.63531	
85.8006	-1.60522	1.69981	
85.8506	-1.51953	1.74516	
85.9006	-1.4318	1.77317	
85.9506	-1.34286	1.78594	
86.0006	-1.25344	1.78572	
86.0507	-1.16417	1.77477	
86.1007	-1.07556	1.7553	
86.1507	-0.988	1.72941	
86.2007	-0.9018	1.69898	
86.2507	-0.817162	1.66571	
86.3007	-0.734211	1.63111	
86.3507	-0.652997	1.59644	
86.4007	-0.573512	1.56278	
86.4507	-0.495694	1.53101	
86.5007	-0.419439	1.50185	
86.5507	-0.344611	1.47587	
86.6007	-0.271046	1.4535	
86.6507	-0.198559	1.43504	
86.7007	-0.126951	1.42071	
86.7507	-0.0560147	1.41064	
86.8007	0.0144635	1.40486	
86.8507	0.0846979	1.40333	
86.9007	0.1549	1.40597	
86.9507	0.225277	1.4126	
87.0007	0.296025	1.42299	
87.0507	0.367329	1.43685	
87.1007	0.439358	1.45382	
87.1507	0.512262	1.47345	
87.2007	0.586167	1.49521	
87.2507	0.661173	1.5185	
87.3007	0.737347	1.5426	
87.3507	0.814719	1.5667	
87.4007	0.893277	1.58985	
87.4507	0.972961	1.61099	
87.5007	1.05365	1.62893	
87.5507	1.13518	1.64236	
87.6007	1.2173	1.64982	
87.6507	1.29968	1.64974	
87.7008	1.38194	1.64048	
87.7508	1.46359	1.62033	
87.8008	1.54407	1.58755	
87.8508	1.62272	1.54047	
87.9008	1.69881	1.47755	
87.9508	1.77153	1.39745	
88.0008	1.84001	1.29918	
88.0508	1.90334	1.18213	
88.1008	1.96058	1.04627	
88.1508	2.01079	0.892163	
88.2008	2.05308	0.721088	
88.2508	2.08663	0.535037	
88.3008	2.11073	0.336721	
88.3508	2.12481	0.129495	
88.4008	2.12847	-0.0827641	
88.4508	2.12151	-0.295828	
88.5008	2.10395	-0.505333	
88.5508	2.07602	-0.707007	
88.6008	2.03816	-0.896905	
88.6508	1.99099	-1.07161	
88.7008	1.93532	-1.2284	
88.7508	1.87207	-1.36535	
88.8008	1.80222	-1.48136	
88.8508	1.72684	-1.57616	
88.9008	1.64698	-1.6502	
88.9508	1.56367	-1.70458	
89.0008	1.47786	-1.74088	
89.0508	1.39044	-1.76102	
89.1008	1.30218	-1.76714	
89.1508	1.21377	-1.76146	
89.2008	1.12577	-1.74619	
89.2508	1.03863	-1.72345	
89.3008	0.952694	-1.69521	
89.3509	0.868224	-1.66324	
89.4009	0.785386	-1.62912	
89.4509	0.704269	-1.59423	
89.5009	0.6249	-1.55973	
89.5509	0.547246	-1.52659	
89.6009	0.47123	-1.49562	
89.6509	0.396736	-1.46745	
89.7009	0.323617	-1.4426	
89.7509	0.251703	-1.42143	
89.8009	0.180807	-1.40421	
89.8509	0.110728	-1.39113	
89.9009	0.0412585	-1.38227	
89.9509	-0.0278133	-1.37766	
90.0009	-0.096699	-1.37725	
90.0509	-0.165608	-1.38092	
90.1009	-0.234741	-1.3885	
90.1509	-0.304293	-1.39977	
90.2009	-0.374443	-1.41442	
90.2509	-0.445356	-1.43208	
90.3009	-0.517179	-1.45233	
90.3509	-0.590033	-1.47465	
90.4009	-0.664015	-1.49843	
90.4509	-0.739189	-1.52298	
90.5009	-0.815583	-1.54749	
90.5509	-0.893184	-1.57103	
90.6009	-0.971931	-1.59258	
90.6509	-1.05171	-1.61096	
90.7009	-1.13234	-1.62488	
90.7509	-1.21359	-1.63292	
90.8009	-1.29514	-1.63355	
90.8509	-1.3766	-1.62515	
90.9009	-1.45749	-1.60604	
90.951	-1.53727	-1.57453	
91.001	-1.61529	-1.52897	
91.051	-1.69083	-1.46784	
91.101	-1.76309	-1.38981	
91.151	-1.83122	-1.2939	
91.201	-1.89432	-1.17949	
91.251	-1.95146	-1.0465	
91.301	-2.00172	-0.895473	
91.351	-2.04422	-0.7276	
91.401	-2.07814	-0.544796	
91.451	-2.10277	-0.349672	
91.501	-2.11753	-0.145479	
91.551	-2.12203	0.0640112	
91.601	-2.11603	0.274671	
91.651	-2.09956	0.482218	
91.701	-2.0728	0.682445	
91.751	-2.03618	0.87144	
91.801	-1.99029	1.04579	
91.851	-1.93591	1.20276	
91.901	-1.87393	1.34036	
91.951	-1.80532	1.45744	
92.001	-1.73113	1.55364	
92.051	-1.65237	1.62933	
92.101	-1.57008	1.68551	
92.151	-1.4852	1.72369	
92.201	-1.39862	1.74571	
92.251	-1.31111	1.75367	
92.301	-1.22336	1.74972	
92.351	-1.13592	1.73605	
92.401	-1.04927	1.71476	
92.451	-0.963756	1.6878	
92.501	-0.879646	1.65694	
92.551	-0.797112	1.62377	
92.6011	-0.716256	1.58966	
92.6511	-0.637109	1.55579	
92.7011	-0.559648	1.52316	
92.7511	-0.483801	1.49256	
92.8011	-0.409458	1.46467	
92.8511	-0.336478	1.43999	
92.9011	-0.264696	1.41891	
92.9511	-0.193926	1.40173	
93.0011	-0.123973	1.38863	
93.0511	-0.0546314	1.37971	
93.1011	0.0143095	1.37501	
93.1511	0.0830599	1.37449	
93.2011	0.151828	1.37805	
93.2511	0.220816	1.38554	
93.3011	0.290217	1.39673	
93.3511	0.360213	1.41133	
93.4011	0.430971	1.429	
93.4511	0.50264	1.44932	
93.5011	0.575344	1.47178	
93.5511	0.649185	1.49581	
93.6011	0.724232	1.52071	
93.6511	0.800519	1.54571	
93.7011	0.878039	1.5699	
93.7511	0.956739	1.59226	
93.8011	1.03651	1.61165	
93.8511	1.1172	1.62679	
93.9011	1.19856	1.63627	
93.9511	1.2803	1.63859	
94.0011	1.36203	1.63211	
94.0511	1.44331	1.61517	
94.1011	1.52357	1.58605	
94.1511	1.6022	1.54309	
94.2011	1.67848	1.48472	
94.2512	1.75162	1.40956	
94.3012	1.82078	1.31655	
94.3512	1.88504	1.20499	
94.4012	1.94349	1.0747	
94.4512	1.9952	0.926098	
94.5012	2.03925	0.76027	
94.5512	2.07483	0.579014	
94.6012	2.10118	0.384839	
94.6512	2.1177	0.180915	
94.7012	2.12396	-0.0290396	
94.7512	2.11971	-0.240912	
94.8012	2.10489	-0.450399	
94.8512	2.07969	-0.653232	
94.9012	2.04449	-0.845404	
94.9512	1.99987	-1.02338	
95.0012	1.94656	-1.18428	
95.0512	1.88545	-1.32599	
95.1012	1.81751	-1.44718	
95.1512	1.74378	-1.54739	
95.2012	1.66529	-1.62688	
95.2512	1.58308	-1.68657	
95.3012	1.49811	-1.7279	
95.3512	1.41129	-1.7527	
95.4012	1.3234	-1.76303	
95.4512	1.23516	-1.76108	
95.5012	1.14713	-1.74906	
95.5512	1.05982	-1.72908	
95.6012	0.973576	-1.70314	
95.6512	0.888689	-1.67307	
95.7012	0.805343	-1.64048	
95.7512	0.723647	-1.60678	
95.8012	0.643642	-1.5732	
95.8512	0.565308	-1.54076	
95.9013	0.48858	-1.51029	
95.9513	0.413351	-1.48247	
96.0013	0.33948	-1.45784	
96.0513	0.266805	-1.43682	
96.1013	0.19514	-1.41968	
96.1513	0.124289	-1.40664	
96.2013	0.054045	-1.39781	
96.2513	-0.0158018	-1.39321	
96.3013	-0.0854637	-1.39282	
96.3513	-0.15515	-1.39653	
96.4013	-0.225063	-1.40418	
96.4513	-0.295398	-1.41554	
96.5013	-0.366337	-1.43031	
96.5513	-0.438046	-1.44814	
96.6013	-0.510673	-1.46859	
96.6513	-0.584342	-1.49113	
96.7013	-0.65915	-1.51516	
96.7513	-0.735163	-1.53998	
96.8013	-0.81241	-1.56476	
96.8513	-0.890877	-1.58858	
96.9013	-0.970503	-1.61037	
96.9513	-1.05117	-1.62895	
97.0013	-1.13271	-1.64299	
97.0513	-1.21486	-1.65106	
97.1013	-1.29731	-1.65158	
97.1513	-1.37967	-1.64291	
97.2013	-1.46145	-1.62332	
97.2513	-1.54208	-1.59108	
97.3013	-1.62092	-1.54451	
97.3513	-1.69721	-1.48205	
97.4013	-1.77016	-1.40235	
97.4513	-1.8389	-1.30439	
97.5014	-1.90249	-1.18758	
97.5514	-1.96	-1.05184	
97.6014	-2.01049	-0.897728	
97.6514	-2.05306	-0.726508	
97.7014	-2.08688	-0.540164	
97.7514	-2.11123	-0.341401	
97.8014	-2.12554	-0.133577	
97.8514	-2.12939	0.079421	
97.9014	-2.12259	0.293351	
97.9514	-2.10514	0.503824	
98.0014	-2.07728	0.706545	
98.0514	-2.03943	0.897538	
98.1014	-1.99222	1.07336	
98.1514	-1.93645	1.23125	
98.2014	-1.87304	1.36927	
98.2514	-1.80299	1.48631	
98.3014	-1.72736	1.58207	
98.3514	-1.6472	1.65701	
98.4014	-1.56353	1.71222	
98.4514	-1.47734	1.74928	
98.5014	-1.38949	1.77013	
98.5514	-1.30078	1.77691	
98.6014	-1.21187	1.77187	
98.6514	-1.12334	1.75722	
98.7014	-1.03564	1.7351	
98.7514	-0.949124	1.70747	
98.8014	-0.864036	1.67615	
98.8514	-0.780548	1.6427	
98.9014	-0.698747	1.60852	
98.9514	-0.618657	1.57476	
99.0014	-0.540245	1.54242	
99.0514	-0.46343	1.51229	
99.1014	-0.388095	1.48502	
99.1515	-0.314089	1.4611	
99.2015	-0.241241	1.44091	
99.2515	-0.16936	1.42473	
99.3015	-0.0982451	1.41271	
99.3515	-0.0276859	1.40494	
99.4015	0.0425305	1.40144	
99.4515	0.112617	1.40215	
99.5015	0.182781	1.40693	
99.5515	0.253227	1.41559	
99.6015	0.324143	1.42789	
99.6515	0.395709	1.4435	
99.7015	0.468086	1.46202	
99.7515	0.541412	1.48298	
99.8015	0.615803	1.50582	
99.8515	0.691345	1.52989	
99.9015	0.768089	1.55444	
99.9515	0.84605	1.57859	
100.002	0.925194	1.60135	
